Data from 20250407_mbg_5_84_600uM_Absorbance__336__17-19-59-655.txt Node

Date: Mon Apr 07 17:19:59 CDT 2025
User: z670b875
Spectrometer: HR200277
Trigger mode: 0
Integration Time (sec): 1.000000E-1
Scans to average: 5
Electric dark correction enabled: true
Nonlinearity correction enabled: false
Boxcar width: 5
XAxis mode: Wavelengths
Number of Pixels in Spectrum: 2110
>>>>>Begin Spectral Data<<<<<
185.005	0.46
185.359	1.18
185.714	-0
186.068	-0
186.423	-0
186.777	-0
187.131	0.04
187.486	1.41
187.84	0.29
188.194	0.26
188.549	0.36
188.903	0.43
189.257	0.71
189.612	1.18
189.966	-0
190.32	-0
190.674	-0
191.028	-0
191.383	-0
191.737	1.86
192.091	-0
192.445	-0
192.799	-0
193.153	1.83
193.507	-0
193.861	0.86
194.215	0.64
194.569	0.25
194.923	0.41
195.277	0.65
195.631	1.69
195.985	-0
196.339	0.43
196.693	0.29
197.047	0.22
197.401	0.24
197.755	0.34
198.109	0.21
198.462	0.23
198.816	0.19
199.17	0.23
199.524	0.16
199.878	0.14
200.231	0.27
200.585	0.32
200.939	0.36
201.292	0.31
201.646	0.3
202	0.28
202.353	0.27
202.707	0.27
203.061	0.21
203.414	0.24
203.768	0.19
204.121	0.15
204.475	0.1
204.828	0.08
205.182	0.08
205.535	0.07
205.889	0.08
206.242	0.11
206.596	0.1
206.949	0.04
207.302	0.08
207.656	0.07
208.009	0.08
208.362	0.12
208.716	0.16
209.069	0.2
209.422	0.14
209.776	0.14
210.129	0.16
210.482	0.01
210.835	0.03
211.188	0.08
211.542	0.1
211.895	0.07
212.248	0.08
212.601	0.06
212.954	0.06
213.307	0.09
213.66	0.09
214.013	0.1
214.366	0.29
214.719	0.32
215.072	0.26
215.425	0.25
215.778	0.31
216.131	0.31
216.484	0.31
216.837	0.27
217.19	0.34
217.543	0.36
217.896	0.33
218.249	0.33
218.602	0.32
218.954	0.28
219.307	0.27
219.66	0.29
220.013	0.24
220.365	0.26
220.718	0.26
221.071	0.23
221.424	0.23
221.776	0.25
222.129	0.22
222.481	0.24
222.834	0.22
223.187	0.22
223.539	0.15
223.892	0.16
224.244	0.14
224.597	0.14
224.949	0.11
225.302	0.11
225.654	0.11
226.007	0.15
226.359	0.11
226.712	0.15
227.064	0.18
227.417	0.23
227.769	0.25
228.121	0.26
228.474	0.31
228.826	0.32
229.178	0.35
229.53	0.35
229.883	0.36
230.235	0.42
230.587	0.43
230.939	0.43
231.292	0.47
231.644	0.47
231.996	0.47
232.348	0.46
232.7	0.49
233.052	0.5
233.404	0.53
233.757	0.53
234.109	0.53
234.461	0.54
234.813	0.56
235.165	0.57
235.517	0.6
235.869	0.63
236.221	0.66
236.572	0.68
236.924	0.71
237.276	0.73
237.628	0.78
237.98	0.8
238.332	0.84
238.684	0.85
239.035	0.87
239.387	0.89
239.739	0.91
240.091	0.93
240.442	0.96
240.794	0.96
241.146	0.98
241.498	1
241.849	1.03
242.201	1.05
242.553	1.07
242.904	1.1
243.256	1.13
243.607	1.15
243.959	1.17
244.31	1.19
244.662	1.24
245.013	1.26
245.365	1.27
245.716	1.29
246.068	1.28
246.419	1.3
246.771	1.31
247.122	1.31
247.473	1.33
247.825	1.34
248.176	1.34
248.527	1.33
248.879	1.33
249.23	1.34
249.581	1.34
249.933	1.35
250.284	1.34
250.635	1.33
250.986	1.33
251.337	1.31
251.689	1.29
252.04	1.28
252.391	1.26
252.742	1.24
253.093	1.22
253.444	1.19
253.795	1.16
254.146	1.14
254.497	1.1
254.848	1.07
255.199	1.04
255.55	1.01
255.901	0.97
256.252	0.94
256.603	0.91
256.954	0.88
257.305	0.85
257.656	0.83
258.007	0.8
258.357	0.78
258.708	0.76
259.059	0.74
259.41	0.72
259.761	0.7
260.111	0.68
260.462	0.67
260.813	0.65
261.163	0.64
261.514	0.63
261.865	0.61
262.215	0.6
262.566	0.59
262.917	0.58
263.267	0.58
263.618	0.57
263.968	0.56
264.319	0.56
264.669	0.55
265.02	0.55
265.37	0.54
265.721	0.54
266.071	0.53
266.422	0.53
266.772	0.52
267.122	0.52
267.473	0.52
267.823	0.51
268.173	0.51
268.524	0.5
268.874	0.5
269.224	0.49
269.574	0.48
269.925	0.48
270.275	0.47
270.625	0.47
270.975	0.46
271.326	0.46
271.676	0.45
272.026	0.45
272.376	0.44
272.726	0.44
273.076	0.43
273.426	0.43
273.776	0.43
274.126	0.42
274.476	0.42
274.826	0.42
275.176	0.41
275.526	0.41
275.876	0.4
276.226	0.39
276.576	0.39
276.926	0.38
277.276	0.37
277.625	0.37
277.975	0.36
278.325	0.36
278.675	0.35
279.025	0.34
279.374	0.34
279.724	0.33
280.074	0.33
280.424	0.32
280.773	0.32
281.123	0.31
281.473	0.31
281.822	0.31
282.172	0.3
282.521	0.3
282.871	0.29
283.221	0.29
283.57	0.28
283.92	0.28
284.269	0.27
284.619	0.27
284.968	0.26
285.317	0.26
285.667	0.26
286.016	0.25
286.366	0.25
286.715	0.25
287.064	0.24
287.414	0.24
287.763	0.24
288.112	0.23
288.462	0.23
288.811	0.23
289.16	0.22
289.509	0.22
289.859	0.22
290.208	0.21
290.557	0.21
290.906	0.21
291.255	0.2
291.604	0.2
291.954	0.19
292.303	0.19
292.652	0.18
293.001	0.18
293.35	0.17
293.699	0.17
294.048	0.16
294.397	0.16
294.746	0.15
295.095	0.15
295.444	0.14
295.793	0.14
296.141	0.14
296.49	0.13
296.839	0.13
297.188	0.13
297.537	0.12
297.886	0.12
298.234	0.12
298.583	0.11
298.932	0.11
299.281	0.11
299.629	0.11
299.978	0.1
300.327	0.1
300.675	0.1
301.024	0.1
301.373	0.1
301.721	0.09
302.07	0.09
302.418	0.09
302.767	0.09
303.115	0.09
303.464	0.09
303.812	0.08
304.161	0.08
304.509	0.08
304.858	0.08
305.206	0.08
305.555	0.08
305.903	0.08
306.251	0.07
306.6	0.07
306.948	0.07
307.296	0.07
307.645	0.07
307.993	0.07
308.341	0.07
308.689	0.07
309.038	0.06
309.386	0.06
309.734	0.06
310.082	0.06
310.43	0.06
310.778	0.06
311.127	0.06
311.475	0.06
311.823	0.06
312.171	0.06
312.519	0.05
312.867	0.05
313.215	0.05
313.563	0.05
313.911	0.05
314.259	0.05
314.607	0.05
314.955	0.05
315.303	0.05
315.65	0.05
315.998	0.05
316.346	0.05
316.694	0.04
317.042	0.04
317.389	0.04
317.737	0.04
318.085	0.04
318.433	0.04
318.78	0.04
319.128	0.04
319.476	0.04
319.823	0.04
320.171	0.04
320.519	0.04
320.866	0.03
321.214	0.03
321.561	0.03
321.909	0.03
322.257	0.03
322.604	0.03
322.952	0.03
323.299	0.03
323.646	0.03
323.994	0.03
324.341	0.03
324.689	0.03
325.036	0.03
325.383	0.03
325.731	0.03
326.078	0.03
326.425	0.03
326.773	0.03
327.12	0.02
327.467	0.02
327.814	0.02
328.162	0.02
328.509	0.02
328.856	0.02
329.203	0.02
329.55	0.02
329.898	0.02
330.245	0.02
330.592	0.02
330.939	0.02
331.286	0.02
331.633	0.02
331.98	0.02
332.327	0.02
332.674	0.02
333.021	0.02
333.368	0.01
333.715	0.01
334.062	0.01
334.408	0.01
334.755	0.01
335.102	0.01
335.449	0.01
335.796	0.01
336.143	0.01
336.489	0.01
336.836	0.01
337.183	0.01
337.53	0.01
337.876	0.01
338.223	0.01
338.57	0.01
338.916	0.01
339.263	0.01
339.61	0.01
339.956	0.01
340.303	0.01
340.649	0.01
340.996	0.01
341.342	0.01
341.689	0.01
342.035	0.01
342.382	0.01
342.728	0.01
343.075	0
343.421	0
343.768	0
344.114	0
344.46	0
344.807	0
345.153	0
345.499	0
345.845	0
346.192	0
346.538	0
346.884	0
347.23	0
347.577	0
347.923	0
348.269	0
348.615	0
348.961	0
349.307	0
349.653	0
349.999	0
350.345	-0
350.692	-0
351.038	-0
351.384	-0
351.729	-0
352.075	-0
352.421	-0
352.767	-0.01
353.113	-0.01
353.459	-0.01
353.805	-0.01
354.151	-0.01
354.497	-0.01
354.842	-0.01
355.188	-0.01
355.534	-0.01
355.88	-0.01
356.225	-0.01
356.571	-0.01
356.917	-0
357.262	-0
357.608	-0
357.954	-0
358.299	-0
358.645	-0
358.991	-0
359.336	-0
359.682	-0
360.027	-0
360.373	-0
360.718	-0
361.064	-0
361.409	-0
361.755	-0
362.1	-0
362.445	0
362.791	0
363.136	0
363.481	0
363.827	0
364.172	0.01
364.517	0.01
364.863	0.01
365.208	0.01
365.553	0.01
365.898	0.01
366.243	0.01
366.589	0.01
366.934	0.01
367.279	0.01
367.624	0.01
367.969	0.01
368.314	0.01
368.659	0.01
369.004	0.01
369.349	0.01
369.694	0.01
370.039	0.01
370.384	0.01
370.729	0.01
371.074	0
371.419	0
371.764	0
372.109	-0
372.454	-0
372.799	-0.01
373.143	-0.01
373.488	-0.01
373.833	-0.01
374.178	-0.01
374.523	-0.01
374.867	-0.01
375.212	-0.01
375.557	-0.01
375.901	-0.01
376.246	-0.01
376.591	-0.01
376.935	-0.01
377.28	-0.01
377.624	-0.01
377.969	-0.01
378.314	-0.01
378.658	-0.01
379.003	-0.01
379.347	-0.01
379.692	-0.01
380.036	-0.01
380.38	-0.01
380.725	-0.01
381.069	-0.01
381.414	-0.01
381.758	-0.01
382.102	-0.01
382.447	-0.01
382.791	-0.01
383.135	-0.01
383.479	-0.01
383.824	-0.01
384.168	-0.01
384.512	-0.01
384.856	-0.02
385.2	-0.02
385.545	-0.02
385.889	-0.02
386.233	-0.02
386.577	-0.02
386.921	-0.02
387.265	-0.02
387.609	-0.02
387.953	-0.01
388.297	-0.01
388.641	-0.01
388.985	-0.01
389.329	-0.01
389.673	-0.01
390.017	-0.01
390.361	-0.01
390.705	-0.01
391.048	-0.01
391.392	-0.01
391.736	-0.01
392.08	-0.01
392.424	-0.01
392.767	-0.01
393.111	-0.01
393.455	-0.01
393.799	-0.01
394.142	-0.01
394.486	-0.01
394.83	-0.01
395.173	-0.01
395.517	-0.01
395.86	-0.01
396.204	-0.01
396.548	-0.01
396.891	-0.01
397.235	-0.01
397.578	-0.01
397.922	-0.01
398.265	-0.01
398.608	-0.01
398.952	-0.01
399.295	-0.01
399.639	-0.01
399.982	-0.01
400.325	-0.01
400.669	-0.01
401.012	-0.01
401.355	-0.01
401.699	-0.01
402.042	-0.01
402.385	-0.01
402.728	-0.01
403.071	-0.01
403.415	-0.01
403.758	-0.01
404.101	-0.01
404.444	-0.01
404.787	-0.01
405.13	-0.01
405.473	-0.01
405.816	-0.01
406.159	-0.01
406.502	-0.01
406.845	-0.01
407.188	-0.01
407.531	-0.01
407.874	-0.01
408.217	-0.01
408.56	-0.01
408.903	-0.01
409.246	-0.01
409.589	-0.01
409.931	-0.01
410.274	-0.01
410.617	-0.01
410.96	-0.01
411.303	-0.01
411.645	-0.01
411.988	-0.01
412.331	-0.01
412.673	-0.01
413.016	-0.01
413.359	-0.01
413.701	-0.01
414.044	-0.01
414.386	-0.01
414.729	-0.01
415.072	-0.01
415.414	-0.01
415.757	-0.01
416.099	-0.01
416.441	-0.01
416.784	-0.01
417.126	-0.01
417.469	-0.01
417.811	-0.01
418.153	-0.01
418.496	-0.01
418.838	-0.01
419.18	-0.01
419.523	-0.01
419.865	-0.02
420.207	-0.01
420.55	-0.01
420.892	-0.01
421.234	-0.01
421.576	-0.01
421.918	-0.01
422.26	-0.01
422.603	-0.01
422.945	-0.01
423.287	-0.01
423.629	-0.01
423.971	-0.01
424.313	-0.01
424.655	-0.01
424.997	-0.01
425.339	-0.01
425.681	-0.01
426.023	-0.01
426.365	-0.01
426.707	-0.01
427.048	-0.01
427.39	-0.01
427.732	-0.01
428.074	-0.01
428.416	-0.01
428.758	-0.01
429.099	-0.01
429.441	-0.01
429.783	-0.01
430.124	-0.01
430.466	-0.01
430.808	-0.01
431.149	-0.01
431.491	-0.01
431.833	-0.01
432.174	-0.01
432.516	-0.01
432.857	-0.01
433.199	-0.01
433.54	-0.01
433.882	-0.01
434.223	-0.01
434.565	-0.02
434.906	-0.02
435.248	-0.02
435.589	-0.01
435.931	-0.01
436.272	-0.01
436.613	-0.01
436.955	-0.01
437.296	-0.01
437.637	-0.01
437.978	-0.01
438.32	-0.01
438.661	-0.01
439.002	-0.01
439.343	-0.01
439.684	-0.01
440.026	-0.01
440.367	-0.01
440.708	-0.01
441.049	-0.01
441.39	-0.01
441.731	-0.01
442.072	-0.01
442.413	-0.01
442.754	-0.01
443.095	-0.01
443.436	-0.01
443.777	-0.01
444.118	-0.01
444.459	-0.01
444.8	-0.01
445.141	-0.01
445.482	-0.01
445.822	-0.01
446.163	-0.01
446.504	-0.01
446.845	-0.01
447.185	-0.01
447.526	-0.01
447.867	-0.01
448.208	-0.01
448.548	-0.01
448.889	-0.01
449.23	-0.01
449.57	-0.01
449.911	-0.01
450.251	-0.01
450.592	-0.01
450.933	-0.01
451.273	-0.01
451.614	-0.01
451.954	-0.01
452.294	-0.01
452.635	-0.01
452.975	-0.01
453.316	-0.01
453.656	-0.01
453.997	-0.01
454.337	-0.01
454.677	-0.01
455.018	-0.01
455.358	-0.01
455.698	-0.01
456.038	-0.01
456.379	-0.01
456.719	-0.01
457.059	-0.01
457.399	-0.01
457.739	-0.01
458.08	-0.01
458.42	-0.01
458.76	-0.01
459.1	-0.01
459.44	-0.01
459.78	-0.01
460.12	-0.01
460.46	-0.01
460.8	-0.01
461.14	-0.01
461.48	-0.01
461.82	-0.01
462.16	-0.01
462.5	-0.02
462.84	-0.02
463.179	-0.02
463.519	-0.02
463.859	-0.02
464.199	-0.02
464.539	-0.02
464.878	-0.02
465.218	-0.02
465.558	-0.02
465.898	-0.02
466.237	-0.02
466.577	-0.02
466.917	-0.02
467.256	-0.02
467.596	-0.02
467.935	-0.02
468.275	-0.02
468.614	-0.02
468.954	-0.02
469.293	-0.02
469.633	-0.02
469.972	-0.02
470.312	-0.02
470.651	-0.02
470.991	-0.02
471.33	-0.02
471.669	-0.02
472.009	-0.02
472.348	-0.02
472.688	-0.02
473.027	-0.02
473.366	-0.02
473.705	-0.01
474.045	-0.01
474.384	-0.01
474.723	-0.02
475.062	-0.02
475.401	-0.02
475.74	-0.02
476.08	-0.02
476.419	-0.01
476.758	-0.01
477.097	-0.02
477.436	-0.02
477.775	-0.02
478.114	-0.02
478.453	-0.02
478.792	-0.02
479.131	-0.01
479.47	-0.01
479.809	-0.01
480.148	-0.01
480.486	-0.01
480.825	-0.01
481.164	-0.01
481.503	-0.01
481.842	-0.01
482.181	-0.01
482.519	-0.01
482.858	-0.01
483.197	-0.01
483.535	-0.01
483.874	-0.01
484.213	-0.01
484.551	-0.01
484.89	-0.01
485.229	-0.01
485.567	-0.01
485.906	-0.01
486.244	-0.01
486.583	-0.01
486.921	-0.01
487.26	-0.01
487.598	-0.01
487.937	-0.01
488.275	-0.01
488.614	-0.01
488.952	0
489.29	-0.01
489.629	-0.01
489.967	-0.01
490.305	-0.01
490.644	-0.01
490.982	-0.01
491.32	-0.01
491.658	-0.01
491.997	-0.01
492.335	-0.01
492.673	-0.01
493.011	-0.01
493.349	-0.01
493.687	-0.01
494.026	-0.01
494.364	-0.01
494.702	-0.01
495.04	-0.01
495.378	-0.01
495.716	-0.01
496.054	-0.01
496.392	-0.01
496.73	-0.01
497.068	-0.01
497.406	-0.01
497.743	-0.01
498.081	-0.01
498.419	-0.02
498.757	-0.02
499.095	-0.02
499.433	-0.02
499.77	-0.02
500.108	-0.02
500.446	-0.01
500.784	-0.01
501.121	-0.01
501.459	-0.01
501.797	-0.01
502.134	-0.01
502.472	-0.01
502.809	-0.01
503.147	-0.01
503.485	-0.01
503.822	-0.01
504.16	-0.01
504.497	-0
504.835	-0
505.172	-0
505.509	-0
505.847	-0
506.184	-0
506.522	-0
506.859	-0
507.196	-0
507.534	-0
507.871	-0.01
508.208	-0.01
508.546	-0.01
508.883	-0.01
509.22	-0.01
509.557	-0
509.894	-0.01
510.232	-0.01
510.569	-0.01
510.906	-0.01
511.243	-0.01
511.58	-0.01
511.917	-0.01
512.254	-0.01
512.591	-0.01
512.928	-0.01
513.265	-0.01
513.602	-0.01
513.939	-0.01
514.276	-0.01
514.613	-0.01
514.95	-0.01
515.287	-0.01
515.624	-0.01
515.96	-0.01
516.297	-0.01
516.634	-0.01
516.971	-0.01
517.308	-0.01
517.644	-0
517.981	-0.01
518.318	-0.01
518.654	-0
518.991	-0
519.328	-0
519.664	-0
520.001	-0
520.337	-0
520.674	-0
521.011	-0
521.347	-0
521.684	-0
522.02	0
522.357	0
522.693	0
523.029	0
523.366	0
523.702	0
524.039	0
524.375	0
524.711	0
525.048	0
525.384	0
525.72	0
526.056	-0
526.393	-0
526.729	-0
527.065	-0
527.401	-0.01
527.737	-0.01
528.073	-0.01
528.41	-0.01
528.746	-0.01
529.082	-0.01
529.418	-0.01
529.754	-0.01
530.09	-0.01
530.426	-0.01
530.762	-0.01
531.098	-0.01
531.434	-0.01
531.77	-0.01
532.105	-0.01
532.441	-0.01
532.777	-0.01
533.113	-0
533.449	-0
533.785	-0
534.12	-0
534.456	-0
534.792	-0
535.128	-0
535.463	-0
535.799	-0
536.135	-0
536.47	-0
536.806	-0
537.141	-0
537.477	-0
537.813	-0
538.148	-0
538.484	-0
538.819	-0
539.155	-0
539.49	-0
539.826	-0
540.161	-0
540.496	-0
540.832	-0
541.167	-0
541.502	-0
541.838	-0
542.173	-0
542.508	-0
542.844	-0
543.179	-0
543.514	-0
543.849	-0
544.185	-0
544.52	-0
544.855	-0
545.19	-0.01
545.525	-0.01
545.86	-0.01
546.195	-0.01
546.53	-0.01
546.865	-0.01
547.2	-0.01
547.535	-0.01
547.87	-0.01
548.205	-0.01
548.54	-0
548.875	-0
549.21	-0
549.545	-0
549.88	-0
550.214	-0
550.549	-0
550.884	0
551.219	-0
551.554	0
551.888	0
552.223	0
552.558	0
552.892	0
553.227	0
553.562	0
553.896	0
554.231	0
554.565	0
554.9	0
555.235	0
555.569	-0
555.904	-0
556.238	-0
556.572	-0
556.907	-0
557.241	-0
557.576	-0
557.91	-0
558.244	-0
558.579	-0
558.913	-0.01
559.247	-0.01
559.582	-0.01
559.916	-0.01
560.25	-0.01
560.584	-0.01
560.919	-0.01
561.253	-0.01
561.587	-0.01
561.921	-0.01
562.255	-0
562.589	-0
562.923	-0
563.257	-0
563.591	-0
563.925	-0
564.259	-0
564.593	-0
564.927	-0
565.261	-0
565.595	-0
565.929	-0
566.263	-0
566.597	-0
566.931	-0
567.265	-0
567.598	-0
567.932	-0
568.266	-0
568.6	-0
568.933	-0
569.267	-0
569.601	-0
569.934	-0
570.268	-0.01
570.602	-0.01
570.935	-0.01
571.269	-0.01
571.602	-0.01
571.936	-0.01
572.269	-0.01
572.603	-0.01
572.936	-0.01
573.27	-0.01
573.603	-0.01
573.937	-0.01
574.27	-0.01
574.603	-0
574.937	-0
575.27	-0
575.603	-0.01
575.937	-0
576.27	-0
576.603	-0
576.937	-0.01
577.27	-0.01
577.603	-0.01
577.936	-0.01
578.269	-0.01
578.602	-0.01
578.936	-0.01
579.269	-0
579.602	-0
579.935	-0
580.268	-0
580.601	-0
580.934	-0
581.267	-0
581.6	-0
581.933	-0.01
582.266	-0.01
582.599	-0.01
582.931	-0.01
583.264	-0.01
583.597	-0.01
583.93	-0.01
584.263	-0.01
584.596	-0.01
584.928	-0.01
585.261	-0.01
585.594	-0.01
585.927	-0.01
586.259	-0.01
586.592	-0.01
586.925	-0.01
587.257	-0.01
587.59	-0.01
587.922	-0.01
588.255	-0.01
588.587	-0.01
588.92	-0.01
589.252	-0.01
589.585	-0.01
589.917	-0.01
590.25	-0.01
590.582	-0.01
590.915	-0.01
591.247	-0.01
591.579	-0.01
591.912	-0.01
592.244	-0.01
592.576	-0.01
592.909	-0.01
593.241	-0.01
593.573	-0.01
593.905	-0.01
594.238	-0.01
594.57	-0
594.902	-0
595.234	-0
595.566	-0
595.898	-0
596.23	-0
596.562	-0
596.894	-0
597.226	-0
597.558	-0
597.89	-0
598.222	-0.01
598.554	-0.01
598.886	-0.01
599.218	-0.01
599.55	-0.01
599.882	-0.01
600.214	-0.01
600.546	-0.01
600.877	-0.01
601.209	-0.01
601.541	-0.01
601.873	-0
602.204	-0.01
602.536	-0.01
602.868	-0.01
603.199	-0.01
603.531	-0.01
603.863	-0.01
604.194	-0
604.526	-0
604.857	-0
605.189	-0
605.52	-0
605.852	-0
606.183	-0
606.515	-0
606.846	-0
607.178	0
607.509	0
607.84	0
608.172	0
608.503	0
608.834	0
609.166	0
609.497	0
609.828	0
610.159	0
610.491	0
610.822	0
611.153	-0
611.484	-0
611.815	-0
612.146	-0
612.478	-0
612.809	-0
613.14	-0.01
613.471	-0.01
613.802	-0.01
614.133	-0.01
614.464	-0.01
614.795	-0.01
615.126	-0.01
615.456	-0
615.787	-0.01
616.118	-0.01
616.449	-0.01
616.78	-0.01
617.111	-0.01
617.441	-0.01
617.772	-0
618.103	-0
618.434	-0
618.764	-0
619.095	-0
619.426	-0
619.756	-0
620.087	-0
620.418	-0
620.748	-0
621.079	-0
621.409	-0
621.74	-0
622.07	0
622.401	-0
622.731	0
623.062	0
623.392	0
623.723	-0
624.053	-0
624.383	0
624.714	0
625.044	-0
625.374	-0
625.705	-0
626.035	-0.01
626.365	-0.01
626.695	-0.01
627.026	-0.01
627.356	-0.01
627.686	-0.01
628.016	-0.01
628.346	-0.01
628.676	-0.01
629.006	-0.01
629.336	-0
629.666	-0
629.996	-0
630.326	-0
630.656	-0
630.986	-0
631.316	0
631.646	0
631.976	0
632.306	0
632.636	0
632.966	0
633.295	-0
633.625	-0
633.955	-0
634.285	-0
634.615	-0
634.944	-0
635.274	-0
635.604	-0
635.933	-0
636.263	-0
636.593	-0
636.922	-0
637.252	-0
637.581	-0
637.911	-0
638.24	-0.01
638.57	-0
638.899	-0
639.229	-0
639.558	-0.01
639.888	-0.01
640.217	-0.01
640.546	-0.01
640.876	-0.01
641.205	-0.01
641.534	-0.01
641.864	-0
642.193	-0
642.522	-0
642.851	-0.01
643.18	-0.01
643.51	-0
643.839	-0
644.168	-0
644.497	-0
644.826	0
645.155	0
645.484	0
645.813	0
646.142	0
646.471	0
646.8	0
647.129	0
647.458	0
647.787	-0
648.116	-0
648.445	-0
648.774	-0
649.103	-0
649.431	-0
649.76	-0
650.089	-0.01
650.418	-0.01
650.747	-0.01
651.075	-0.01
651.404	-0.01
651.733	-0.01
652.061	-0.01
652.39	-0.01
652.718	-0.01
653.047	-0.01
653.376	-0.01
653.704	-0.01
654.033	-0.01
654.361	-0.01
654.69	-0.01
655.018	-0
655.347	-0
655.675	-0
656.003	-0
656.332	0
656.66	0
656.989	0.01
657.317	0.01
657.645	0.01
657.973	0.01
658.302	0.01
658.63	0.01
658.958	0.01
659.286	0.01
659.615	0.01
659.943	0.01
660.271	0.02
660.599	-0
660.927	-0
661.255	-0
661.583	-0
661.911	-0.01
662.239	-0.01
662.567	-0.01
662.895	-0.01
663.223	-0.01
663.551	-0.01
663.879	-0.01
664.207	-0.01
664.535	-0.01
664.863	-0.01
665.19	-0.01
665.518	-0.01
665.846	-0.01
666.174	-0.01
666.502	-0.01
666.829	-0.01
667.157	-0.01
667.485	-0.01
667.812	-0.01
668.14	-0
668.468	-0
668.795	-0
669.123	-0
669.45	0
669.778	0
670.105	-0
670.433	-0
670.76	-0
671.088	-0
671.415	-0
671.743	-0.01
672.07	-0.01
672.398	-0.01
672.725	-0.01
673.052	-0.01
673.38	-0.01
673.707	-0.01
674.034	-0.01
674.361	-0.01
674.689	-0.01
675.016	-0.01
675.343	-0.01
675.67	-0.01
675.997	-0.01
676.324	-0.01
676.652	-0.01
676.979	-0.01
677.306	-0.01
677.633	-0.01
677.96	-0.01
678.287	-0.01
678.614	-0.01
678.941	-0.01
679.268	-0.01
679.595	-0.01
679.922	-0.01
680.248	-0
680.575	-0
680.902	-0
681.229	-0
681.556	0
681.882	0
682.209	0
682.536	0
682.863	-0
683.189	-0
683.516	0
683.843	0
684.169	0
684.496	0
684.823	0
685.149	0
685.476	0
685.802	0
686.129	0
686.455	0
686.782	0
687.108	-0
687.435	-0
687.761	-0
688.087	-0
688.414	-0.01
688.74	-0.01
689.066	-0.01
689.393	-0.01
689.719	-0.01
690.045	-0.01
690.371	-0.01
690.698	-0.01
691.024	-0.01
691.35	-0.01
691.676	-0.01
692.002	-0.01
692.328	-0.01
692.655	-0.01
692.981	-0.01
693.307	-0.01
693.633	-0.01
693.959	-0.01
694.285	-0.01
694.611	-0.01
694.937	-0.01
695.263	-0.01
695.588	-0.01
695.914	-0.01
696.24	-0.01
696.566	-0.01
696.892	-0.01
697.218	-0
697.543	-0
697.869	-0
698.195	-0
698.521	-0
698.846	-0
699.172	-0
699.498	-0
699.823	-0
700.149	-0
700.475	-0
700.8	-0.01
701.126	-0.01
701.451	-0.01
701.777	-0.01
702.102	-0.01
702.428	-0.01
702.753	-0.01
703.079	-0.01
703.404	-0.01
703.729	-0.01
704.055	-0.01
704.38	-0.01
704.705	-0.01
705.031	-0.01
705.356	-0.01
705.681	-0.01
706.007	-0.01
706.332	-0.01
706.657	-0.01
706.982	-0.01
707.307	-0.01
707.632	-0.01
707.958	-0.01
708.283	-0.01
708.608	-0.01
708.933	-0.01
709.258	-0.01
709.583	-0.01
709.908	-0.01
710.233	-0.01
710.558	-0.01
710.883	-0.01
711.208	-0
711.532	-0
711.857	-0
712.182	-0
712.507	0
712.832	0
713.157	-0
713.481	-0
713.806	-0
714.131	-0
714.455	-0.01
714.78	-0.01
715.105	-0.01
715.429	-0.01
715.754	-0.01
716.079	-0.01
716.403	-0.01
716.728	-0.01
717.052	-0.01
717.377	-0.01
717.701	-0.02
718.026	-0.02
718.35	-0.02
718.675	-0.02
718.999	-0.02
719.323	-0.02
719.648	-0.02
719.972	-0.01
720.296	-0.01
720.621	-0.01
720.945	-0.01
721.269	-0.01
721.594	-0.01
721.918	-0.01
722.242	-0.01
722.566	-0.01
722.89	-0.01
723.214	-0.01
723.539	-0
723.863	-0
724.187	-0
724.511	-0
724.835	-0
725.159	-0
725.483	-0
725.807	-0
726.131	-0
726.455	-0
726.779	-0
727.102	-0
727.426	-0
727.75	-0
728.074	-0
728.398	-0
728.721	-0
729.045	-0
729.369	-0
729.693	-0.01
730.016	-0.01
730.34	-0.01
730.664	-0.01
730.987	-0.02
731.311	-0.02
731.635	-0.02
731.958	-0.02
732.282	-0.02
732.605	-0.02
732.929	-0.01
733.252	-0.01
733.576	-0.01
733.899	-0.01
734.222	-0.01
734.546	-0.01
734.869	-0.01
735.193	-0.01
735.516	-0.01
735.839	-0.01
736.163	-0.01
736.486	-0.01
736.809	-0.01
737.132	-0.01
737.455	-0.01
737.779	-0.01
738.102	-0.01
738.425	-0.01
738.748	-0.01
739.071	-0.01
739.394	-0.01
739.717	-0.01
740.04	-0.01
740.363	-0
740.686	-0
741.009	-0.01
741.332	-0.01
741.655	-0.01
741.978	-0
742.301	-0
742.624	-0
742.947	-0
743.27	-0
743.592	-0
743.915	-0
744.238	-0
744.561	-0
744.883	-0
745.206	-0
745.529	-0.01
745.851	-0.01
746.174	-0.01
746.497	-0.01
746.819	-0.01
747.142	-0.01
747.464	-0.01
747.787	-0
748.11	-0
748.432	-0
748.754	-0
749.077	-0
749.399	-0
749.722	-0.01
750.044	-0.01
750.366	-0.01
750.689	-0.01
751.011	-0.01
751.333	-0.01
751.656	-0.01
751.978	-0.01
752.3	-0.01
752.622	-0.01
752.945	-0.01
753.267	-0.02
753.589	-0.02
753.911	-0.02
754.233	-0.02
754.555	-0.02
754.877	-0.02
755.199	-0.02
755.521	-0.02
755.843	-0.02
756.165	-0.02
756.487	-0.02
756.809	-0.02
757.131	-0.02
757.453	-0.02
757.775	-0.02
758.097	-0.02
758.419	-0.02
758.74	-0.02
759.062	-0.02
759.384	-0.01
759.706	-0.01
760.028	-0.01
760.349	-0.01
760.671	-0.01
760.993	-0.01
761.314	-0.01
761.636	-0.01
761.957	-0
762.279	-0
762.601	-0
762.922	-0
763.244	-0
763.565	-0
763.887	-0
764.208	-0
764.529	-0
764.851	-0
765.172	-0
765.494	-0
765.815	-0
766.136	-0
766.458	-0
766.779	-0
767.1	-0
767.421	-0
767.743	-0
768.064	-0
768.385	-0
768.706	-0
769.027	-0
769.348	-0
769.669	-0
769.991	-0
770.312	0
770.633	0
770.954	0
771.275	0
771.596	0
771.916	0
772.237	0
772.558	-0
772.879	-0
773.2	-0
773.521	-0.01
773.842	-0.01
774.162	-0.01
774.483	-0.01
774.804	-0.01
775.125	-0.01
775.445	-0.01
775.766	-0.01
776.087	-0.01
776.407	-0.01
776.728	-0.01
777.049	-0.01
777.369	-0.01
777.69	-0.01
778.01	-0.01
778.331	-0.01
778.651	-0.01
778.972	-0.01
779.292	-0.01
779.613	-0.01
779.933	-0
780.253	-0
780.574	-0
780.894	-0
781.214	-0
781.535	-0
781.855	-0
782.175	-0
782.496	-0
782.816	-0
783.136	-0
783.456	-0
783.776	-0
784.096	-0
784.416	-0
784.737	-0
785.057	-0
785.377	0
785.697	0
786.017	0
786.337	-0
786.657	-0
786.977	-0.01
787.296	-0.01
787.616	-0.01
787.936	-0.01
788.256	-0.02
788.576	-0.02
788.896	-0.02
789.215	-0.02
789.535	-0.02
789.855	-0.02
790.175	-0.02
790.494	-0.02
790.814	-0.02
791.134	-0.02
791.453	-0.02
791.773	-0.02
792.093	-0.02
792.412	-0.02
792.732	-0.02
793.051	-0.02
793.371	-0.02
793.69	-0.02
794.01	-0.02
794.329	-0.02
794.649	-0.02
794.968	-0.02
795.287	-0.02
795.607	-0.02
795.926	-0.02
796.245	-0.03
796.565	-0.03
796.884	-0.03
797.203	-0.03
797.522	-0.03
797.842	-0.03
798.161	-0.03
798.48	-0.03
798.799	-0.03
799.118	-0.02
799.437	-0.02
799.756	-0.02
800.075	-0.02
800.394	-0.02
800.713	-0.02
801.032	-0.02
801.351	-0.02
801.67	-0.02
801.989	-0.02
802.308	-0.02
802.627	-0.02
802.946	-0.02
803.265	-0.02
803.584	-0.02
803.902	-0.02
804.221	-0.02
804.54	-0.02
804.859	-0.02
805.177	-0.02
805.496	-0.02
805.815	-0.01
806.133	-0.01
806.452	-0.01
806.771	-0.01
807.089	-0.01
807.408	-0.01
807.726	-0.01
808.045	-0.01
808.363	-0.01
808.682	-0.01
809	-0.01
809.319	-0.01
809.637	-0.01
809.955	-0.01
810.274	-0.01
810.592	-0.01
810.91	-0.01
811.229	-0.01
811.547	-0.01
811.865	-0.01
812.184	-0.01
812.502	-0.02
812.82	-0.02
813.138	-0.02
813.456	-0.02
813.774	-0.02
814.092	-0.02
814.411	-0.02
814.729	-0.03
815.047	-0.03
815.365	-0.03
815.683	-0.03
816.001	-0.03
816.319	-0.03
816.637	-0.03
816.954	-0.02
817.272	-0.02
817.59	-0.02
817.908	-0.02
818.226	-0.02
818.544	-0.03
818.861	-0.03
819.179	-0.03
819.497	-0.03
819.815	-0.03
820.132	-0.03
820.45	-0.03
820.768	-0.03
821.085	-0.03
821.403	-0.03
821.721	-0.03
822.038	-0.03
822.356	-0.03
822.673	-0.02
822.991	-0.02
823.308	-0.02
823.626	-0.02
823.943	-0.02
824.26	-0.01
824.578	-0.01
824.895	-0.01
825.213	-0.01
825.53	-0.01
825.847	-0.01
826.164	-0.01
826.482	-0.01
826.799	-0.01
827.116	-0.01
827.433	-0.01
827.751	-0.01
828.068	-0.01
828.385	-0.01
828.702	-0.01
829.019	-0.01
829.336	-0.02
829.653	-0.02
829.97	-0.02
830.287	-0.02
830.604	-0.02
830.921	-0.02
831.238	-0.02
831.555	-0.02
831.872	-0.02
832.189	-0.02
832.506	-0.02
832.822	-0.02
833.139	-0.02
833.456	-0.02
833.773	-0.02
834.089	-0.02
834.406	-0.02
834.723	-0.02
835.039	-0.02
835.356	-0.02
835.673	-0.02
835.989	-0.02
836.306	-0.02
836.623	-0.02
836.939	-0.02
837.256	-0.01
837.572	-0.01
837.889	-0.01
838.205	-0.01
838.521	-0.01
838.838	-0.01
839.154	-0.01
839.471	-0.01
839.787	-0.01
840.103	-0.01
840.42	-0.01
840.736	-0.01
841.052	-0.01
841.368	-0.01
841.685	-0.01
842.001	-0.01
842.317	-0.01
842.633	-0.01
842.949	-0.01
843.265	-0.01
843.581	-0.01
843.897	-0.01
844.214	-0.01
844.53	-0.01
844.846	-0.01
845.162	-0.01
845.477	-0.01
845.793	-0.01
846.109	-0.01
846.425	-0.01
846.741	-0.02
847.057	-0.02
847.373	-0.02
847.689	-0.02
848.004	-0.03
848.32	-0.03
848.636	-0.03
848.952	-0.03
849.267	-0.03
849.583	-0.03
849.899	-0.03
850.214	-0.03
850.53	-0.03
850.845	-0.03
851.161	-0.03
851.476	-0.03
851.792	-0.02
852.107	-0.02
852.423	-0.02
852.738	-0.02
853.054	-0.02
853.369	-0.02
853.685	-0.02
854	-0.02
854.315	-0.02
854.631	-0.02
854.946	-0.02
855.261	-0.02
855.576	-0.02
855.892	-0.02
856.207	-0.02
856.522	-0.03
856.837	-0.02
857.152	-0.02
857.468	-0.02
857.783	-0.02
858.098	-0.02
858.413	-0.02
858.728	-0.02
859.043	-0.02
859.358	-0.02
859.673	-0.02
859.988	-0.02
860.303	-0.02
860.618	-0.02
860.932	-0.02
861.247	-0.02
861.562	-0.02
861.877	-0.02
862.192	-0.02
862.506	-0.02
862.821	-0.02
863.136	-0.02
863.451	-0.02
863.765	-0.02
864.08	-0.02
864.395	-0.02
864.709	-0.02
865.024	-0.02
865.338	-0.02
865.653	-0.02
865.967	-0.02
866.282	-0.02
866.596	-0.02
866.911	-0.02
867.225	-0.02
867.54	-0.02
867.854	-0.01
868.169	-0.01
868.483	-0.01
868.797	-0.01
869.112	-0.01
869.426	-0.01
869.74	-0.01
870.054	-0.01
870.369	-0.01
870.683	-0.01
870.997	-0.01
871.311	-0.01
871.625	-0.01
871.939	-0.01
872.253	-0.01
872.567	-0.01
872.882	-0.01
873.196	-0.01
873.51	-0.01
873.824	-0.01
874.137	-0.01
874.451	-0.01
874.765	-0.01
875.079	-0.01
875.393	-0.01
875.707	-0.01
876.021	-0.01
876.335	-0.01
876.648	-0.01
876.962	-0.01
877.276	-0.01
877.59	-0.02
877.903	-0.02
878.217	-0.02
878.531	-0.02
878.844	-0.02
879.158	-0.02
879.471	-0.02
879.785	-0.02
880.098	-0.02
880.412	-0.02
880.725	-0.01
881.039	-0.01
881.352	-0.01
881.666	-0.01
881.979	-0.01
882.293	-0.01
882.606	-0.02
882.919	-0.02
883.233	-0.02
883.546	-0.02
883.859	-0.02
884.172	-0.02
884.486	-0.02
884.799	-0.02
885.112	-0.02
885.425	-0.02
885.738	-0.02
886.051	-0.02
886.365	-0.02
886.678	-0.02
886.991	-0.03
887.304	-0.03
887.617	-0.03
887.93	-0.03
888.243	-0.03
888.556	-0.03
888.868	-0.03
889.181	-0.03
889.494	-0.03
889.807	-0.03
890.12	-0.03
890.433	-0.03
